x_Axis:Wavelength (nm)	y_Axis:%Reflectance or Transmittance
2603.5070215025976	30.007451333052266
2588.5019687028735	30.42230727050216
2573.6688850238816	30.964946845778325
2559.004830968047	31.512530319675296
2544.506933652024	31.840571342618983
2530.172384930332	31.93505026873085
2515.9984395820575	32.090197145581634
2501.9824135581653	32.584491986666286
2488.1216822870674	33.364979703314305
2474.413679036208	34.16445879179296
2460.8558933275035	34.89394867771216
2447.4458694045975	35.734703323199604
2434.181204749957	36.76787492183898
2421.059548649931	37.723901496392784
2408.0786008059704	38.28901032577889
2395.2361099902887	38.569792793457374
2382.529872744309	39.01037754551634
2369.9577321183233	39.817809080532065
2357.5175764508376	40.685631254904656
2345.207338186171	41.223614143023795
2333.024992728899	41.49563916133972
2320.96855733382	41.88790932849707
2309.0360900301616	42.51896617362817
2297.2256885788047	43.07681307126355
2285.535489461341	43.33520792677844
2273.9636668998482	43.539185314055594
2262.508431906287	43.99135827336201
2251.1680313604943	44.40417513986486
2239.9407471157533	44.07076532930424
2228.824895131009	42.789098445803546
2217.8188246287878	41.30881643758824
2206.9209172779465	40.6766223119506
2196.129586400394	41.22619111300496
2185.4432762009806	42.384589799342066
2174.860461019755	43.48950253478898
2164.3796446058477	44.48498600817754
2153.9993594122457	45.65614291062494
2143.7181659107646	46.939542667450084
2133.534651926546	47.83671220588961
2123.4474319914343	48.03571719696601
2113.455146715606	47.79920421488408
2103.5564621768654	47.60953961563063
2093.7500693270126	47.6214718944219
2084.03468341475	47.616117878374546
2074.4090434245695	47.41180241593289
2064.871911531127	47.10427168092256
2055.422072568597	46.86638432646921
2046.0583335145268	46.68266747591965
2036.7795229877443	46.397855806867966
2027.5844907598569	45.9503712486918
2018.4721072799289	45.42598208690996
2009.441263211913	44.90312067691883
2000.490868984453	44.36241131659895
1991.6198543526546	43.76917223853536
1982.8271679714705	43.15369939275905
1974.1117769803357	42.562773379265614
1965.472666598708	41.99713436330032
1956.9088397321818	41.4437724934386
1948.4193165888573	40.903671357742326
1940.0031343056478	40.325743823834515
1931.6593465842343	39.6057661716255
1923.3870233363737	38.81503642190055
1915.185250338278	38.43249613810021
1907.0531288938048	39.12631103290228
1898.9897755061882	41.09776696927656
1890.9943215580622	43.72906082634403
1883.0659129995383	46.05453108962682
1875.2037100440905	47.526032798702346
1867.406886872031	48.26624296270225
1859.6746313413544	48.682344401838776
1852.006144705732	48.97538919263882
1844.400641339456	49.09548918024097
1836.857348469134	49.03703993009992
1829.3755059119414	48.955796044157324
1821.9543658202424	48.96637323796142
1814.5931924324025	48.98977764220317
1807.2912618296205	48.9123682167086
1800.0478616986022	48.7959975640864
1792.8622910999238	48.80390751516271
1785.733860241919	48.95529071065889
1778.6618902599362	49.09011065739033
1771.6457130008282	49.10401462383921
1764.6846708125106	49.09113929825837
1757.7781163384739	49.18289418889397
1750.925412317095	49.33589317561804
1744.1259313856253	49.398325156942626
1737.3790558887322	49.351251231743106
1730.684177691462	49.348940713504966
1724.0406979965146	49.489477650881945
1717.4480271657096	49.657468123059985
1710.905584545531	49.6778323492297
1704.4127982966468	49.55577311218285
1697.9691052272963	49.463647052255084
1691.5739506304374	49.50478563872313
1685.2267881245677	49.59455291659565
1678.9270794981085	49.60595818626833
1672.6742945572728	49.54176891346477
1666.467910977314	49.503210897508055
1660.3074141570792	49.534981504083156
1654.1922970767737	49.57791022152197
1648.1220601588582	49.567034837495775
1642.0962111319957	49.50724411286209
1636.1142648979765	49.44561492629658
1630.1757434015367	49.418758026236596
1624.280175503003	49.44194231534726
1618.427096853692	49.506798005202704
1612.616049773994	49.560951646006714
1606.8465831340716	49.53188995365789
1601.1182522371118	49.41552374977368
1595.4306187050681	49.30844148582843
1589.7832503668246	49.30219242282018
1584.175721148731	49.364004131101986
1578.6076109674455	49.37974555265699
1573.0785056250277	49.31189282267715
1567.5879967062297	49.242867702877824
1562.1356814779324	49.235789523410936
1556.7211627906684	49.22425379795672
1551.3440489821915	49.108223776587536
1546.0039537830335	48.91490202509987
1540.7004962240057	48.77729433815141
1535.4333005456022	48.752070823901136
1530.2019961092467	48.746306348315066
1525.0062173103565	48.666799774969796
1519.8456034931642	48.56037968795175
1514.7197988672685	48.532689484994194
1509.6284524258651	48.572002835694825
1504.5712178656202	48.55242527520895
1499.5477535081534	48.41266973006969
1494.5577222230843	48.233077353116485
1489.6007913526107	48.10258908686812
1484.6766326375864	47.987213930586194
1479.7849221450554	47.80471508796842
1474.925340197217	47.579013213299426
1470.0975713017872	47.42390576742546
1465.3013040837166	47.37938552141332
1460.5362312182517	47.35192290728288
1455.802049365287	47.251313651979146
1451.0984591049962	47.10917177987956
1446.4251648747056	47.00835022915486
1441.7818749069827	46.95042585235485
1437.1683011689145	46.85265948348872
1432.5841593025473	46.63088617831432
1428.029168566462	46.223969857600814
1423.503051778464	45.604802318895565
1419.0055352593529	44.88739235692692
1414.5363487777624	44.40108295032967
1410.0952254960341	44.49457942395125
1405.6819019171085	45.15206583808505
1401.2961178324122	45.89658671763408
1396.937616270716	46.25958043929357
1392.606143447945	46.302927928064165
1388.3014487179194	46.507088115441746
1384.0232845240055	47.14723278151444
1379.7714063516598	47.950532144879524
1375.5455726818423	48.474312203177625
1371.3455449452863	48.63593498940327
1367.1710874776008	48.698905094498336
1363.0219674751925	48.85426965679069
1358.8979549519863	49.026820317590655
1354.7988226969305	49.109910680957164
1350.7243462322679	49.158374316511235
1346.6743037725582	49.22720684768404
1342.6484761844354	49.19366468056386
1338.6466469470831	48.94851416517989
1334.6686021134185	48.67944379517306
1330.7141302719613	48.72365421020737
1326.7830225093835	49.09647636957617
1322.8750723737176	49.37848791541421
1318.9900758382141	49.24934894961856
1315.1278312658344	48.943123801882024
1311.2881393743648	48.941119879738274
1307.470803202142	49.312652700823676
1303.6756280743714	49.62118144925052
1299.9024215700358	49.52944865257705
1296.1509934893722	49.23625843455257
